LabVIEW Measurement	
Writer_Version	2
Reader_Version	2
Separator	Tab
Decimal_Separator	.
Multi_Headings	No
X_Columns	One
Time_Pref	Absolute
Operator	Polarized Target DAQ
Date	2014/04/11
Time	15:26:34.109375
***End_of_Header***	
	
Channels	2		
Samples	1	1	
Date	2014/04/11	2014/04/11	
Time	15:26:34.125	15:26:34.125	
X_Dimension	Time	Time	
X0	0.0000000000000000E+0	0.0000000000000000E+0	
Delta_X	1.000000	1.000000	
***End_of_Header***			
X_Value	Untitled	Untitled 1	Comment
0.000000	75.486600	293.372500
0.593750	75.491600	293.372800
1.578125	75.505900	293.362100
2.578125	75.498900	293.358800
3.593750	75.491100	293.369400
7.656250	75.485400	293.373200
7.765625	75.494900	293.373200
11.671875	75.489900	293.375400
11.750000	75.499100	293.375400
12.578125	75.495300	293.376500
16.671875	75.496600	293.371500
16.781250	75.496400	293.371500
20.671875	75.496700	293.361700
23.781250	75.497600	293.381700
23.875000	75.480700	293.381700
24.640625	75.490400	293.380500
25.578125	75.494200	293.376600
26.578125	75.491400	293.380800
27.578125	75.495200	293.381300
28.578125	75.503400	293.371500
29.578125	75.505600	293.363900
30.578125	75.509300	293.354500
31.578125	75.517100	293.338800
35.671875	75.515200	293.350900
35.750000	75.490000	293.350900
36.593750	75.496500	293.353000
37.578125	75.500400	293.350500
38.578125	75.500300	293.354400
42.625000	75.505700	293.351400
42.718750	75.506300	293.366900
43.578125	75.503000	293.361700
44.625000	75.501300	293.358100
48.671875	75.497500	293.374500
48.765625	75.498000	293.374500
52.625000	75.514400	293.352600
52.734375	75.495600	293.356000
59.703125	75.485000	293.359100
59.796875	75.501600	293.365700
63.625000	75.502400	293.361800
63.734375	75.498600	293.345300
64.578125	75.501500	293.344600
68.687500	75.489200	293.361900
71.812500	75.489100	293.360000
71.921875	75.496300	293.359500
75.625000	75.497300	293.362400
75.734375	75.494600	293.362800
76.593750	75.490300	293.369400
77.578125	75.503600	293.358300
78.578125	75.493500	293.365800
79.578125	75.491900	293.375900
80.640625	75.497100	293.377100
84.625000	75.501100	293.400200
84.718750	75.476800	293.400800
85.578125	75.496200	293.394400
86.578125	75.488300	293.391000
87.578125	75.494600	293.387500
88.578125	75.493000	293.387500
89.578125	75.507600	293.370700
90.578125	75.502300	293.364300
91.578125	75.486100	293.375900
92.593750	75.488300	293.386400
96.703125	75.496500	293.399300
96.796875	75.491700	293.399300
100.687500	75.493700	293.381600
100.781250	75.486600	293.381600
104.703125	75.496300	293.370600
104.781250	75.485200	293.370600
105.578125	75.488400	293.374900
106.578125	75.506700	293.359400
107.578125	75.489400	293.368200
108.578125	75.484300	293.385500
109.578125	75.494600	293.384700
110.578125	75.496300	293.380700
111.578125	75.481400	293.399100
115.640625	75.499300	293.386600
115.781250	75.504300	293.381900
119.625000	75.496400	293.385000
122.750000	75.497300	293.349400
122.828125	75.510200	293.349400
123.578125	75.485600	293.369600
127.640625	75.480200	293.386400
127.734375	75.501800	293.369400
131.640625	75.495000	293.373500
131.718750	75.493100	293.374100
132.578125	75.480000	293.388800
